     t [s]      T [K]     P [Pa]       h [J/kg]
 4.050e-01   1000.862 101325.000   5.879516e+05
 4.100e-01   1000.883 101325.000   5.879516e+05
 4.150e-01   1000.905 101325.000   5.879516e+05
 4.200e-01   1000.927 101325.000   5.879516e+05
 4.250e-01   1000.950 101325.000   5.879517e+05
 4.300e-01   1000.973 101325.000   5.879517e+05
 4.350e-01   1000.996 101325.000   5.879517e+05
 4.400e-01   1001.020 101325.000   5.879517e+05
 4.450e-01   1001.044 101325.000   5.879516e+05
 4.500e-01   1001.069 101325.000   5.879517e+05
 4.550e-01   1001.095 101325.000   5.879516e+05
 4.600e-01   1001.120 101325.000   5.879516e+05
 4.650e-01   1001.147 101325.000   5.879516e+05
 4.700e-01   1001.173 101325.000   5.879516e+05
 4.750e-01   1001.201 101325.000   5.879516e+05
 4.800e-01   1001.228 101325.000   5.879516e+05
 4.850e-01   1001.257 101325.000   5.879516e+05
 4.900e-01   1001.286 101325.000   5.879516e+05
 4.950e-01   1001.315 101325.000   5.879516e+05
 5.000e-01   1001.345 101325.000   5.879516e+05
 5.050e-01   1001.376 101325.000   5.879516e+05
 5.100e-01   1001.407 101325.000   5.879516e+05
 5.150e-01   1001.439 101325.000   5.879516e+05
 5.200e-01   1001.471 101325.000   5.879516e+05
 5.250e-01   1001.505 101325.000   5.879516e+05
 5.300e-01   1001.538 101325.000   5.879516e+05
 5.350e-01   1001.573 101325.000   5.879516e+05
 5.400e-01   1001.608 101325.000   5.879516e+05
 5.450e-01   1001.644 101325.000   5.879516e+05
 5.500e-01   1001.680 101325.000   5.879516e+05
 5.550e-01   1001.718 101325.000   5.879516e+05
 5.600e-01   1001.756 101325.000   5.879516e+05
 5.650e-01   1001.795 101325.000   5.879516e+05
 5.700e-01   1001.834 101325.000   5.879516e+05
 5.750e-01   1001.875 101325.000   5.879516e+05
 5.800e-01   1001.916 101325.000   5.879516e+05
 5.850e-01   1001.958 101325.000   5.879516e+05
 5.900e-01   1002.002 101325.000   5.879516e+05
 5.950e-01   1002.045 101325.000   5.879516e+05
 6.000e-01   1002.090 101325.000   5.879516e+05
 6.050e-01   1002.136 101325.000   5.879516e+05
 6.100e-01   1002.183 101325.000   5.879516e+05
 6.150e-01   1002.231 101325.000   5.879516e+05
 6.200e-01   1002.280 101325.000   5.879516e+05
 6.250e-01   1002.330 101325.000   5.879516e+05
 6.300e-01   1002.381 101325.000   5.879516e+05
 6.350e-01   1002.433 101325.000   5.879516e+05
 6.400e-01   1002.486 101325.000   5.879516e+05
 6.450e-01   1002.541 101325.000   5.879516e+05
 6.500e-01   1002.597 101325.000   5.879516e+05
 6.550e-01   1002.654 101325.000   5.879516e+05
 6.600e-01   1002.712 101325.000   5.879516e+05
 6.650e-01   1002.771 101325.000   5.879516e+05
 6.700e-01   1002.832 101325.000   5.879516e+05
 6.750e-01   1002.895 101325.000   5.879516e+05
 6.800e-01   1002.959 101325.000   5.879516e+05
 6.850e-01   1003.024 101325.000   5.879516e+05
 6.900e-01   1003.091 101325.000   5.879516e+05
 6.950e-01   1003.159 101325.000   5.879516e+05
 7.000e-01   1003.229 101325.000   5.879516e+05
 7.050e-01   1003.301 101325.000   5.879516e+05
 7.100e-01   1003.375 101325.000   5.879516e+05
 7.150e-01   1003.450 101325.000   5.879516e+05
 7.200e-01   1003.527 101325.000   5.879516e+05
 7.250e-01   1003.606 101325.000   5.879516e+05
 7.300e-01   1003.688 101325.000   5.879516e+05
 7.350e-01   1003.771 101325.000   5.879516e+05
 7.400e-01   1003.856 101325.000   5.879516e+05
 7.450e-01   1003.944 101325.000   5.879516e+05
 7.500e-01   1004.034 101325.000   5.879516e+05
 7.550e-01   1004.126 101325.000   5.879516e+05
 7.600e-01   1004.220 101325.000   5.879516e+05
 7.650e-01   1004.318 101325.000   5.879516e+05
 7.700e-01   1004.417 101325.000   5.879516e+05
 7.750e-01   1004.520 101325.000   5.879516e+05
 7.800e-01   1004.626 101325.000   5.879516e+05
 7.850e-01   1004.734 101325.000   5.879516e+05
 7.900e-01   1004.846 101325.000   5.879516e+05
 7.950e-01   1004.960 101325.000   5.879516e+05
 8.000e-01   1005.078 101325.000   5.879516e+05
 8.050e-01   1005.200 101325.000   5.879516e+05
 8.100e-01   1005.325 101325.000   5.879516e+05
 8.150e-01   1005.454 101325.000   5.879516e+05
 8.200e-01   1005.587 101325.000   5.879516e+05
 8.250e-01   1005.724 101325.000   5.879516e+05
 8.300e-01   1005.865 101325.000   5.879516e+05
 8.350e-01   1006.011 101325.000   5.879516e+05
 8.400e-01   1006.162 101325.000   5.879516e+05
 8.450e-01   1006.318 101325.000   5.879516e+05
 8.500e-01   1006.478 101325.000   5.879516e+05
 8.550e-01   1006.645 101325.000   5.879516e+05
 8.600e-01   1006.817 101325.000   5.879517e+05
 8.650e-01   1006.995 101325.000   5.879517e+05
 8.700e-01   1007.179 101325.000   5.879517e+05
 8.750e-01   1007.370 101325.000   5.879517e+05
 8.800e-01   1007.568 101325.000   5.879517e+05
 8.850e-01   1007.774 101325.000   5.879517e+05
 8.900e-01   1007.988 101325.000   5.879516e+05
 8.950e-01   1008.210 101325.000   5.879517e+05
 9.000e-01   1008.441 101325.000   5.879517e+05
 9.050e-01   1008.681 101325.000   5.879516e+05
 9.100e-01   1008.931 101325.000   5.879516e+05
 9.150e-01   1009.192 101325.000   5.879516e+05
 9.200e-01   1009.465 101325.000   5.879515e+05
 9.250e-01   1009.749 101325.000   5.879515e+05
 9.300e-01   1010.047 101325.000   5.879515e+05
 9.350e-01   1010.359 101325.000   5.879515e+05
 9.400e-01   1010.686 101325.000   5.879515e+05
 9.450e-01   1011.030 101325.000   5.879515e+05
 9.500e-01   1011.391 101325.000   5.879515e+05
 9.550e-01   1011.771 101325.000   5.879515e+05
 9.600e-01   1012.171 101325.000   5.879515e+05
 9.650e-01   1012.595 101325.000   5.879516e+05
 9.700e-01   1013.043 101325.000   5.879516e+05
 9.750e-01   1013.518 101325.000   5.879516e+05
 9.800e-01   1014.024 101325.000   5.879516e+05
 9.850e-01   1014.562 101325.000   5.879516e+05
 9.900e-01   1015.137 101325.000   5.879516e+05
 9.950e-01   1015.753 101325.000   5.879516e+05
 1.000e+00   1016.415 101325.000   5.879516e+05
 1.005e+00   1017.129 101325.000   5.879516e+05
 1.010e+00   1017.902 101325.000   5.879516e+05
 1.015e+00   1018.742 101325.000   5.879516e+05
 1.020e+00   1019.660 101325.000   5.879516e+05
 1.025e+00   1020.668 101325.000   5.879516e+05
 1.030e+00   1021.783 101325.000   5.879516e+05
 1.035e+00   1023.025 101325.000   5.879516e+05
 1.040e+00   1024.419 101325.000   5.879516e+05
 1.045e+00   1026.002 101325.000   5.879516e+05
 1.050e+00   1027.819 101325.000   5.879516e+05
 1.055e+00   1029.936 101325.000   5.879516e+05
 1.060e+00   1032.449 101325.000   5.879516e+05
 1.065e+00   1035.503 101325.000   5.879517e+05
 1.070e+00   1039.330 101325.000   5.879517e+05
 1.075e+00   1044.337 101325.000   5.879517e+05
 1.080e+00   1051.310 101325.000   5.879516e+05
 1.085e+00   1062.057 101325.000   5.879516e+05
 1.090e+00   1082.110 101325.000   5.879516e+05
 1.095e+00   1146.176 101325.000   5.879516e+05
 1.100e+00   2549.417 101325.000   5.879518e+05
 1.105e+00   2545.388 101325.000   5.879518e+05
 1.110e+00   2543.191 101325.000   5.879518e+05
 1.115e+00   2542.105 101325.000   5.879518e+05
 1.120e+00   2541.590 101325.000   5.879518e+05
 1.125e+00   2541.351 101325.000   5.879518e+05
 1.130e+00   2541.240 101325.000   5.879518e+05
 1.135e+00   2541.189 101325.000   5.879518e+05
 1.140e+00   2541.166 101325.000   5.879518e+05
 1.145e+00   2541.156 101325.000   5.879518e+05
 1.150e+00   2541.151 101325.000   5.879518e+05
 1.155e+00   2541.148 101325.000   5.879518e+05
 1.160e+00   2541.147 101325.000   5.879518e+05
 1.165e+00   2541.147 101325.000   5.879518e+05
 1.170e+00   2541.147 101325.000   5.879518e+05
 1.175e+00   2541.147 101325.000   5.879518e+05
 1.180e+00   2541.147 101325.000   5.879518e+05
 1.185e+00   2541.147 101325.000   5.879518e+05
 1.190e+00   2541.147 101325.000   5.879518e+05
 1.195e+00   2541.147 101325.000   5.879518e+05
 1.200e+00   2541.147 101325.000   5.879518e+05
 1.205e+00   2541.147 101325.000   5.879518e+05
 1.210e+00   2541.147 101325.000   5.879518e+05
 1.215e+00   2541.147 101325.000   5.879518e+05
 1.220e+00   2541.147 101325.000   5.879518e+05
 1.225e+00   2541.147 101325.000   5.879518e+05
 1.230e+00   2541.147 101325.000   5.879518e+05
 1.235e+00   2541.147 101325.000   5.879518e+05
 1.240e+00   2541.147 101325.000   5.879518e+05
 1.245e+00   2541.147 101325.000   5.879518e+05
 1.250e+00   2541.147 101325.000   5.879518e+05
 1.255e+00   2541.147 101325.000   5.879518e+05
 1.260e+00   2541.147 101325.000   5.879518e+05
 1.265e+00   2541.147 101325.000   5.879518e+05
 1.270e+00   2541.147 101325.000   5.879518e+05
 1.275e+00   2541.147 101325.000   5.879518e+05
 1.280e+00   2541.147 101325.000   5.879518e+05
 1.285e+00   2541.147 101325.000   5.879518e+05
 1.290e+00   2541.147 101325.000   5.879518e+05
 1.295e+00   2541.147 101325.000   5.879518e+05
 1.300e+00   2541.147 101325.000   5.879518e+05
 1.305e+00   2541.147 101325.000   5.879518e+05
 1.310e+00   2541.147 101325.000   5.879518e+05
 1.315e+00   2541.147 101325.000   5.879518e+05
 1.320e+00   2541.147 101325.000   5.879518e+05
 1.325e+00   2541.147 101325.000   5.879518e+05
 1.330e+00   2541.147 101325.000   5.879518e+05
 1.335e+00   2541.147 101325.000   5.879518e+05
 1.340e+00   2541.147 101325.000   5.879518e+05
 1.345e+00   2541.147 101325.000   5.879518e+05
 1.350e+00   2541.147 101325.000   5.879518e+05
 1.355e+00   2541.147 101325.000   5.879518e+05
 1.360e+00   2541.147 101325.000   5.879518e+05
 1.365e+00   2541.147 101325.000   5.879518e+05
 1.370e+00   2541.147 101325.000   5.879518e+05
 1.375e+00   2541.147 101325.000   5.879518e+05
 1.380e+00   2541.147 101325.000   5.879518e+05
 1.385e+00   2541.147 101325.000   5.879518e+05
 1.390e+00   2541.147 101325.000   5.879518e+05
 1.395e+00   2541.147 101325.000   5.879518e+05
 1.400e+00   2541.147 101325.000   5.879518e+05
